Patient Name         : RANDO, BREAST (TEST PHYS BREAST)
Patient ID           : TEST PHYS BREAST
Comment              : DVHs for one plan
Date                 : 11.07.2012  15:37:32
Type                 : Cumulative Dose Volume Histogram
Description          : The cumulative DVH displays the percentage (relative)
                       or volume (absolute) of structures that receive a dose
                       equal to or greater than a given dose.

Plan: BREL FinF
Prescribed dose [cGy]: 4000.0
% for dose (%): 100.0

Structure: BODY
Approval Status: Approved
Plan: BREL FinF
Course: C1
Volume [cm³]: 12838.2
Dose Cover.[%]: 98.5
Sampling Cover.[%]: 100.8
Min Dose [%]: 0.0
Max Dose [%]: 106.2
Mean Dose [%]: 7.9
Modal Dose [%]: 0.0
Median Dose [%]: 0.4
STD [%]: 23.5
Equiv. Sphere Diam. [cm]: N/A
Conformity Index: N/A
Gradient Measure [cm]: N/A

Relative dose [%]          Dose [cGy] Ratio of Total Structure Volume [%]
                0                   0                    98.481
              0.1                   4                   74.3587
              0.2                   8                   62.3238
              0.3                  12                   53.8459
              0.4                  16                   47.5425
              0.5                  20                   43.0671
              0.6                  24                   39.5568
              0.7                  28                   36.6388
              0.8                  32                   34.2983
              0.9                  36                    32.372
                1                  40                   30.7602
              1.1                  44                   29.3362
              1.2                  48                   28.0834
              1.3                  52                   26.9773
              1.4                  56                   25.9857
              1.5                  60                   25.0889
              1.6                  64                   24.2639
              1.7                  68                   23.4955
              1.8                  72                   22.7588
              1.9                  76                   22.0815
                2                  80                   21.4444
              2.1                  84                   20.8455
              2.2                  88                   20.2783
              2.3                  92                   19.7416
              2.4                  96                   19.2445
              2.5                 100                   18.7754
              2.6                 104                   18.3339
              2.7                 108                    17.916
              2.8                 112                   17.5187
              2.9                 116                   17.1374
                3                 120                   16.7759
              3.1                 124                   16.4292
              3.2                 128                   16.0963
              3.3                 132                   15.7832
              3.4                 136                   15.4822
              3.5                 140                   15.2023
              3.6                 144                   14.9314
              3.7                 148                   14.6749
              3.8                 152                    14.431
              3.9                 156                   14.2018
                4                 160                   13.9851
              4.1                 164                    13.782
              4.2                 168                   13.5849
              4.3                 172                   13.3986
              4.4                 176                   13.2239
              4.5                 180                   13.0538
              4.6                 184                   12.8967
              4.7                 188                   12.7438
              4.8                 192                    12.597
              4.9                 196                   12.4572
                5                 200                    12.322
              5.1                 204                   12.1988
              5.2                 208                   12.0799
              5.3                 212                   11.9663
              5.4                 216                   11.8611
              5.5                 220                    11.762
              5.6                 224                   11.6666
              5.7                 228                   11.5778
              5.8                 232                   11.4936
              5.9                 236                   11.4141
                6                 240                   11.3351
              6.1                 244                   11.2594
              6.2                 248                   11.1866
              6.3                 252                   11.1168
              6.4                 256                   11.0502
              6.5                 260                   10.9844
              6.6                 264                    10.919
              6.7                 268                   10.8573
              6.8                 272                   10.8009
              6.9                 276                   10.7488
                7                 280                   10.6998
              7.1                 284                   10.6507
              7.2                 288                   10.6023
              7.3                 292                   10.5569
              7.4                 296                   10.5102
              7.5                 300                   10.4617
              7.6                 304                   10.4171
              7.7                 308                   10.3775
              7.8                 312                   10.3371
              7.9                 316                   10.2978
                8                 320                   10.2601
              8.1                 324                   10.2235
              8.2                 328                   10.1871
              8.3                 332                   10.1511
              8.4                 336                   10.1164
              8.5                 340                    10.083
              8.6                 344                   10.0525
              8.7                 348                    10.023
              8.8                 352                     9.995
              8.9                 356                   9.96716
                9                 360                   9.93999
              9.1                 364                   9.91408
              9.2                 368                   9.88981
              9.3                 372                     9.866
              9.4                 376                   9.84226
              9.5                 380                   9.81837
              9.6                 384                   9.79512
              9.7                 388                   9.77297
              9.8                 392                   9.75021
              9.9                 396                   9.72855
               10                 400                   9.70779
             10.1                 404                   9.68763
             10.2                 408                   9.66778
             10.3                 412                    9.6481
             10.4                 416                    9.6285
             10.5                 420                   9.60989
             10.6                 424                   9.59231
             10.7                 428                   9.57415
             10.8                 432                    9.5565
             10.9                 436                   9.53948
               11                 440                   9.52226
             11.1                 444                   9.50517
             11.2                 448                   9.48783
             11.3                 452                   9.47046
             11.4                 456                   9.45366
             11.5                 460                   9.43652
             11.6                 464                   9.41943
             11.7                 468                   9.40383
             11.8                 472                   9.38881
             11.9                 476                   9.37393
               12                 480                   9.35962
             12.1                 484                   9.34558
             12.2                 488                   9.33255
             12.3                 492                   9.31983
             12.4                 496                   9.30699
             12.5                 500                   9.29443
             12.6                 504                   9.28176
             12.7                 508                   9.26952
             12.8                 512                   9.25714
             12.9                 516                   9.24486
               13                 520                   9.23268
             13.1                 524                   9.22004
             13.2                 528                   9.20803
             13.3                 532                   9.19607
             13.4                 536                   9.18457
             13.5                 540                   9.17319
             13.6                 544                   9.16175
             13.7                 548                   9.15008
             13.8                 552                   9.13842
             13.9                 556                   9.12718
               14                 560                   9.11628
             14.1                 564                   9.10537
             14.2                 568                   9.09421
             14.3                 572                   9.08312
             14.4                 576                    9.0732
             14.5                 580                   9.06385
             14.6                 584                   9.05422
             14.7                 588                   9.04466
             14.8                 592                   9.03493
             14.9                 596                   9.02566
               15                 600                   9.01622
             15.1                 604                   9.00677
             15.2                 608                   8.99735
             15.3                 612                   8.98826
             15.4                 616                   8.97922
             15.5                 620                   8.97002
             15.6                 624                   8.96086
             15.7                 628                   8.95173
             15.8                 632                   8.94274
             15.9                 636                   8.93377
               16                 640                   8.92486
             16.1                 644                   8.91629
             16.2                 648                   8.90759
             16.3                 652                   8.89915
             16.4                 656                    8.8909
             16.5                 660                   8.88255
             16.6                 664                   8.87432
             16.7                 668                   8.86622
             16.8                 672                   8.85818
             16.9                 676                   8.85026
               17                 680                   8.84215
             17.1                 684                   8.83428
             17.2                 688                   8.82652
             17.3                 692                   8.81923
             17.4                 696                   8.81171
             17.5                 700                    8.8042
             17.6                 704                   8.79682
             17.7                 708                   8.78952
             17.8                 712                   8.78243
             17.9                 716                   8.77561
               18                 720                   8.76866
             18.1                 724                   8.76164
             18.2                 728                    8.7549
             18.3                 732                   8.74822
             18.4                 736                   8.74198
             18.5                 740                   8.73598
             18.6                 744                   8.73017
             18.7                 748                   8.72421
             18.8                 752                    8.7184
             18.9                 756                   8.71284
               19                 760                   8.70732
             19.1                 764                   8.70167
             19.2                 768                    8.6961
             19.3                 772                   8.69034
             19.4                 776                   8.68481
             19.5                 780                    8.6792
             19.6                 784                   8.67356
             19.7                 788                   8.66773
             19.8                 792                   8.66182
             19.9                 796                   8.65607
               20                 800                   8.65031
             20.1                 804                   8.64469
             20.2                 808                   8.63881
             20.3                 812                   8.63289
             20.4                 816                   8.62717
             20.5                 820                   8.62129
             20.6                 824                   8.61537
             20.7                 828                   8.60959
             20.8                 832                   8.60375
             20.9                 836                   8.59777
               21                 840                   8.59174
             21.1                 844                   8.58554
             21.2                 848                   8.57934
             21.3                 852                   8.57313
             21.4                 856                   8.56672
             21.5                 860                   8.55994
             21.6                 864                   8.55303
             21.7                 868                   8.54639
             21.8                 872                   8.53953
             21.9                 876                   8.53242
               22                 880                   8.52559
             22.1                 884                   8.51837
             22.2                 888                   8.51125
             22.3                 892                   8.50389
             22.4                 896                   8.49673
             22.5                 900                   8.48975
             22.6                 904                   8.48273
             22.7                 908                   8.47511
             22.8                 912                   8.46788
             22.9                 916                    8.4609
               23                 920                    8.4538
             23.1                 924                   8.44654
             23.2                 928                   8.43945
             23.3                 932                   8.43247
             23.4                 936                   8.42523
             23.5                 940                   8.41856
             23.6                 944                   8.41207
             23.7                 948                   8.40535
             23.8                 952                   8.39844
             23.9                 956                    8.3919
               24                 960                   8.38505
             24.1                 964                   8.37828
             24.2                 968                   8.37146
             24.3                 972                   8.36467
             24.4                 976                   8.35769
             24.5                 980                   8.35088
             24.6                 984                   8.34423
             24.7                 988                   8.33775
             24.8                 992                   8.33136
             24.9                 996                    8.3251
               25                1000                   8.31871
             25.1                1004                   8.31228
             25.2                1008                   8.30584
             25.3                1012                   8.29904
             25.4                1016                   8.29248
             25.5                1020                   8.28623
             25.6                1024                      8.28
             25.7                1028                   8.27365
             25.8                1032                   8.26747
             25.9                1036                   8.26122
               26                1040                   8.25513
             26.1                1044                   8.24892
             26.2                1048                   8.24287
             26.3                1052                   8.23663
             26.4                1056                   8.23041
             26.5                1060                   8.22364
             26.6                1064                   8.21748
             26.7                1068                   8.21134
             26.8                1072                   8.20532
             26.9                1076                    8.1993
               27                1080                   8.19327
             27.1                1084                   8.18732
             27.2                1088                   8.18136
             27.3                1092                   8.17525
             27.4                1096                   8.16919
             27.5                1100                   8.16335
             27.6                1104                   8.15747
             27.7                1108                   8.15144
             27.8                1112                   8.14554
             27.9                1116                   8.13959
               28                1120                   8.13351
             28.1                1124                   8.12759
             28.2                1128                   8.12172
             28.3                1132                   8.11585
             28.4                1136                   8.11005
             28.5                1140                   8.10434
             28.6                1144                   8.09853
             28.7                1148                   8.09274
             28.8                1152                    8.0871
             28.9                1156                   8.08152
               29                1160                   8.07594
             29.1                1164                   8.07036
             29.2                1168                   8.06483
             29.3                1172                   8.05931
             29.4                1176                   8.05378
             29.5                1180                   8.04833
             29.6                1184                   8.04277
             29.7                1188                   8.03735
             29.8                1192                   8.03182
             29.9                1196                   8.02644
               30                1200                   8.02102
             30.1                1204                    8.0156
             30.2                1208                   8.01021
             30.3                1212                   8.00485
             30.4                1216                   7.99944
             30.5                1220                   7.99396
             30.6                1224                   7.98857
             30.7                1228                   7.98323
             30.8                1232                   7.97793
             30.9                1236                   7.97267
               31                1240                   7.96741
             31.1                1244                   7.96214
             31.2                1248                   7.95685
             31.3                1252                   7.95153
             31.4                1256                   7.94622
             31.5                1260                   7.94104
             31.6                1264                   7.93582
             31.7                1268                   7.93059
             31.8                1272                   7.92536
             31.9                1276                   7.92007
               32                1280                   7.91478
             32.1                1284                   7.90953
             32.2                1288                   7.90427
             32.3                1292                   7.89905
             32.4                1296                   7.89372
             32.5                1300                   7.88849
             32.6                1304                   7.88322
             32.7                1308                   7.87815
             32.8                1312                   7.87304
             32.9                1316                   7.86795
               33                1320                   7.86285
             33.1                1324                   7.85774
             33.2                1328                   7.85247
             33.3                1332                   7.84737
             33.4                1336                   7.84233
             33.5                1340                   7.83725
             33.6                1344                   7.83216
             33.7                1348                   7.82708
             33.8                1352                   7.82187
             33.9                1356                   7.81676
               34                1360                   7.81168
             34.1                1364                   7.80661
             34.2                1368                   7.80162
             34.3                1372                   7.79661
             34.4                1376                   7.79165
             34.5                1380                   7.78674
             34.6                1384                   7.78179
             34.7                1388                   7.77688
             34.8                1392                     7.772
             34.9                1396                   7.76704
               35                1400                   7.76219
             35.1                1404                   7.75737
             35.2                1408                   7.75245
             35.3                1412                   7.74762
             35.4                1416                   7.74276
             35.5                1420                   7.73799
             35.6                1424                   7.73321
             35.7                1428                   7.72845
             35.8                1432                   7.72359
             35.9                1436                   7.71888
               36                1440                   7.71417
             36.1                1444                   7.70946
             36.2                1448                   7.70468
             36.3                1452                   7.70002
             36.4                1456                   7.69541
             36.5                1460                   7.69081
             36.6                1464                   7.68623
             36.7                1468                   7.68155
             36.8                1472                   7.67691
             36.9                1476                   7.67232
               37                1480                   7.66775
             37.1                1484                   7.66313
             37.2                1488                    7.6584
             37.3                1492                   7.65374
             37.4                1496                   7.64918
             37.5                1500                   7.64464
             37.6                1504                   7.64014
             37.7                1508                   7.63561
             37.8                1512                   7.63096
             37.9                1516                   7.62645
               38                1520                   7.62196
             38.1                1524                   7.61744
             38.2                1528                   7.61292
             38.3                1532                   7.60839
             38.4                1536                   7.60376
             38.5                1540                   7.59934
             38.6                1544                   7.59493
             38.7                1548                   7.59051
             38.8                1552                   7.58608
             38.9                1556                   7.58163
               39                1560                   7.57717
             39.1                1564                   7.57265
             39.2                1568                   7.56821
             39.3                1572                   7.56379
             39.4                1576                   7.55937
             39.5                1580                   7.55497
             39.6                1584                    7.5506
             39.7                1588                   7.54624
             39.8                1592                   7.54187
             39.9                1596                   7.53746
               40                1600                   7.53304
             40.1                1604                   7.52863
             40.2                1608                   7.52423
             40.3                1612                   7.51987
             40.4                1616                   7.51551
             40.5                1620                   7.51115
             40.6                1624                   7.50676
             40.7                1628                   7.50241
             40.8                1632                   7.49804
             40.9                1636                   7.49366
               41                1640                   7.48928
             41.1                1644                   7.48483
             41.2                1648                   7.48037
             41.3                1652                   7.47597
             41.4                1656                   7.47153
             41.5                1660                    7.4671
             41.6                1664                   7.46262
             41.7                1668                   7.45816
             41.8                1672                   7.45373
             41.9                1676                   7.44921
               42                1680                   7.44483
             42.1                1684                   7.44046
             42.2                1688                   7.43609
             42.3                1692                   7.43176
             42.4                1696                   7.42743
             42.5                1700                   7.42313
             42.6                1704                   7.41883
             42.7                1708                   7.41454
             42.8                1712                   7.41017
             42.9                1716                   7.40569
               43                1720                   7.40138
             43.1                1724                   7.39709
             43.2                1728                   7.39282
             43.3                1732                   7.38854
             43.4                1736                   7.38425
             43.5                1740                   7.37998
             43.6                1744                    7.3757
             43.7                1748                   7.37143
             43.8                1752                   7.36714
             43.9                1756                   7.36265
               44                1760                   7.35843
             44.1                1764                   7.35417
             44.2                1768                   7.34991
             44.3                1772                   7.34566
             44.4                1776                    7.3414
             44.5                1780                   7.33704
             44.6                1784                   7.33278
             44.7                1788                   7.32843
             44.8                1792                   7.32411
             44.9                1796                   7.31989
               45                1800                   7.31565
             45.1                1804                   7.31137
             45.2                1808                   7.30707
             45.3                1812                   7.30279
             45.4                1816                   7.29852
             45.5                1820                   7.29419
             45.6                1824                   7.28985
             45.7                1828                   7.28571
             45.8                1832                   7.28154
             45.9                1836                   7.27734
               46                1840                   7.27307
             46.1                1844                   7.26878
             46.2                1848                    7.2645
             46.3                1852                   7.26022
             46.4                1856                   7.25598
             46.5                1860                   7.25178
             46.6                1864                   7.24756
             46.7                1868                    7.2433
             46.8                1872                   7.23908
             46.9                1876                    7.2349
               47                1880                    7.2307
             47.1                1884                   7.22649
             47.2                1888                   7.22226
             47.3                1892                   7.21805
             47.4                1896                   7.21387
             47.5                1900                   7.20968
             47.6                1904                   7.20548
             47.7                1908                   7.20129
             47.8                1912                   7.19711
             47.9                1916                   7.19294
               48                1920                   7.18878
             48.1                1924                   7.18456
             48.2                1928                   7.18037
             48.3                1932                   7.17623
             48.4                1936                    7.1721
             48.5                1940                   7.16797
             48.6                1944                   7.16386
             48.7                1948                   7.15979
             48.8                1952                   7.15572
             48.9                1956                   7.15165
               49                1960                   7.14758
             49.1                1964                   7.14353
             49.2                1968                   7.13947
             49.3                1972                   7.13542
             49.4                1976                   7.13138
             49.5                1980                   7.12733
             49.6                1984                   7.12314
             49.7                1988                   7.11884
             49.8                1992                    7.1148
             49.9                1996                   7.11057
               50                2000                   7.10657
             50.1                2004                   7.10252
             50.2                2008                   7.09855
             50.3                2012                   7.09459
             50.4                2016                   7.09051
             50.5                2020                   7.08643
             50.6                2024                   7.08252
             50.7                2028                    7.0786
             50.8                2032                   7.07457
             50.9                2036                    7.0706
               51                2040                   7.06676
             51.1                2044                   7.06288
             51.2                2048                   7.05897
             51.3                2052                   7.05499
             51.4                2056                   7.05108
             51.5                2060                   7.04723
             51.6                2064                   7.04334
             51.7                2068                   7.03947
             51.8                2072                   7.03553
             51.9                2076                   7.03169
               52                2080                   7.02787
             52.1                2084                   7.02408
             52.2                2088                   7.02034
             52.3                2092                   7.01663
             52.4                2096                   7.01292
             52.5                2100                   7.00922
             52.6                2104                   7.00553
             52.7                2108                   7.00179
             52.8                2112                   6.99809
             52.9                2116                   6.99437
               53                2120                   6.99074
             53.1                2124                   6.98715
             53.2                2128                   6.98357
             53.3                2132                      6.98
             53.4                2136                   6.97644
             53.5                2140                   6.97288
             53.6                2144                   6.96933
             53.7                2148                   6.96572
             53.8                2152                   6.96205
             53.9                2156                   6.95849
               54                2160                   6.95492
             54.1                2164                   6.95136
             54.2                2168                   6.94777
             54.3                2172                   6.94418
             54.4                2176                   6.94054
             54.5                2180                   6.93709
             54.6                2184                   6.93364
             54.7                2188                   6.93016
             54.8                2192                   6.92662
             54.9                2196                   6.92301
               55                2200                   6.91948
             55.1                2204                   6.91596
             55.2                2208                    6.9125
             55.3                2212                   6.90903
             55.4                2216                   6.90562
             55.5                2220                   6.90221
             55.6                2224                    6.8988
             55.7                2228                   6.89539
             55.8                2232                   6.89197
             55.9                2236                   6.88847
               56                2240                   6.88481
             56.1                2244                   6.88133
             56.2                2248                   6.87786
             56.3                2252                   6.87437
             56.4                2256                   6.87091
             56.5                2260                   6.86743
             56.6                2264                   6.86395
             56.7                2268                   6.86044
             56.8                2272                   6.85681
             56.9                2276                   6.85331
               57                2280                   6.84979
             57.1                2284                   6.84623
             57.2                2288                   6.84265
             57.3                2292                   6.83888
             57.4                2296                   6.83522
             57.5                2300                   6.83156
             57.6                2304                   6.82789
             57.7                2308                   6.82412
             57.8                2312                   6.82045
             57.9                2316                   6.81675
               58                2320                   6.81293
             58.1                2324                   6.80918
             58.2                2328                   6.80533
             58.3                2332                   6.80149
             58.4                2336                   6.79756
             58.5                2340                   6.79376
             58.6                2344                   6.78994
             58.7                2348                    6.7862
             58.8                2352                   6.78236
             58.9                2356                   6.77851
               59                2360                   6.77474
             59.1                2364                   6.77095
             59.2                2368                   6.76707
             59.3                2372                   6.76324
             59.4                2376                   6.75931
             59.5                2380                   6.75531
             59.6                2384                   6.75146
             59.7                2388                    6.7476
             59.8                2392                   6.74377
             59.9                2396                   6.73975
               60                2400                   6.73578
             60.1                2404                   6.73181
             60.2                2408                   6.72782
             60.3                2412                   6.72383
             60.4                2416                   6.71997
             60.5                2420                   6.71608
             60.6                2424                   6.71222
             60.7                2428                   6.70839
             60.8                2432                   6.70452
             60.9                2436                   6.70059
               61                2440                   6.69657
             61.1                2444                   6.69251
             61.2                2448                   6.68843
             61.3                2452                   6.68414
             61.4                2456                   6.68001
             61.5                2460                   6.67598
             61.6                2464                   6.67198
             61.7                2468                   6.66799
             61.8                2472                   6.66402
             61.9                2476                   6.66004
               62                2480                   6.65597
             62.1                2484                   6.65194
             62.2                2488                   6.64794
             62.3                2492                   6.64397
             62.4                2496                   6.63986
             62.5                2500                   6.63578
             62.6                2504                   6.63166
             62.7                2508                   6.62752
             62.8                2512                    6.6232
             62.9                2516                   6.61904
               63                2520                   6.61496
             63.1                2524                   6.61091
             63.2                2528                   6.60686
             63.3                2532                   6.60278
             63.4                2536                   6.59858
             63.5                2540                   6.59436
             63.6                2544                   6.58999
             63.7                2548                   6.58578
             63.8                2552                   6.58171
             63.9                2556                    6.5776
               64                2560                   6.57343
             64.1                2564                   6.56926
             64.2                2568                   6.56519
             64.3                2572                   6.56089
             64.4                2576                   6.55668
             64.5                2580                   6.55242
             64.6                2584                   6.54774
             64.7                2588                   6.54341
             64.8                2592                     6.539
             64.9                2596                   6.53472
               65                2600                   6.53048
             65.1                2604                   6.52626
             65.2                2608                   6.52202
             65.3                2612                   6.51781
             65.4                2616                   6.51359
             65.5                2620                   6.50944
             65.6                2624                    6.5053
             65.7                2628                    6.5011
             65.8                2632                   6.49677
             65.9                2636                   6.49238
               66                2640                   6.48814
             66.1                2644                   6.48389
             66.2                2648                   6.47973
             66.3                2652                   6.47554
             66.4                2656                   6.47132
             66.5                2660                   6.46711
             66.6                2664                   6.46279
             66.7                2668                    6.4586
             66.8                2672                   6.45443
             66.9                2676                   6.45018
               67                2680                   6.44583
             67.1                2684                   6.44126
             67.2                2688                   6.43696
             67.3                2692                    6.4326
             67.4                2696                   6.42822
             67.5                2700                   6.42393
             67.6                2704                   6.41949
             67.7                2708                   6.41516
             67.8                2712                   6.41051
             67.9                2716                   6.40619
               68                2720                   6.40189
             68.1                2724                   6.39746
             68.2                2728                   6.39299
             68.3                2732                   6.38856
             68.4                2736                   6.38415
             68.5                2740                   6.37982
             68.6                2744                   6.37548
             68.7                2748                   6.37111
             68.8                2752                   6.36664
             68.9                2756                   6.36207
               69                2760                    6.3574
             69.1                2764                   6.35294
             69.2                2768                    6.3482
             69.3                2772                    6.3436
             69.4                2776                   6.33916
             69.5                2780                   6.33471
             69.6                2784                   6.33029
             69.7                2788                   6.32588
             69.8                2792                   6.32144
             69.9                2796                   6.31684
               70                2800                    6.3123
             70.1                2804                   6.30778
             70.2                2808                   6.30332
             70.3                2812                   6.29886
             70.4                2816                   6.29435
             70.5                2820                   6.28974
             70.6                2824                   6.28501
             70.7                2828                   6.28046
             70.8                2832                   6.27593
             70.9                2836                   6.27138
               71                2840                   6.26683
             71.1                2844                    6.2623
             71.2                2848                   6.25767
             71.3                2852                    6.2528
             71.4                2856                   6.24801
             71.5                2860                    6.2429
             71.6                2864                   6.23801
             71.7                2868                   6.23304
             71.8                2872                   6.22816
             71.9                2876                   6.22334
               72                2880                   6.21825
             72.1                2884                   6.21295
             72.2                2888                   6.20781
             72.3                2892                   6.20247
             72.4                2896                   6.19702
             72.5                2900                   6.19169
             72.6                2904                   6.18657
             72.7                2908                   6.18109
             72.8                2912                   6.17545
             72.9                2916                    6.1697
               73                2920                   6.16427
             73.1                2924                   6.15884
             73.2                2928                   6.15357
             73.3                2932                   6.14827
             73.4                2936                   6.14292
             73.5                2940                   6.13752
             73.6                2944                   6.13225
             73.7                2948                   6.12701
             73.8                2952                   6.12171
             73.9                2956                   6.11646
               74                2960                   6.11125
             74.1                2964                    6.1059
             74.2                2968                   6.10078
             74.3                2972                   6.09555
             74.4                2976                   6.09037
             74.5                2980                   6.08506
             74.6                2984                   6.07952
             74.7                2988                   6.07414
             74.8                2992                   6.06877
             74.9                2996                   6.06335
               75                3000                   6.05785
             75.1                3004                   6.05207
             75.2                3008                   6.04618
             75.3                3012                   6.04039
             75.4                3016                   6.03443
             75.5                3020                   6.02851
             75.6                3024                   6.02271
             75.7                3028                    6.0172
             75.8                3032                   6.01167
             75.9                3036                   6.00594
               76                3040                    6.0006
             76.1                3044                    5.9952
             76.2                3048                    5.9896
             76.3                3052                   5.98386
             76.4                3056                   5.97796
             76.5                3060                   5.97203
             76.6                3064                   5.96611
             76.7                3068                   5.96052
             76.8                3072                   5.95459
             76.9                3076                    5.9486
               77                3080                   5.94298
             77.1                3084                   5.93713
             77.2                3088                   5.93099
             77.3                3092                    5.9249
             77.4                3096                   5.91816
             77.5                3100                   5.91174
             77.6                3104                   5.90553
             77.7                3108                   5.89942
             77.8                3112                   5.89323
             77.9                3116                   5.88668
               78                3120                   5.88038
             78.1                3124                   5.87407
             78.2                3128                   5.86776
             78.3                3132                   5.86151
             78.4                3136                   5.85517
             78.5                3140                   5.84814
             78.6                3144                   5.84101
             78.7                3148                   5.83369
             78.8                3152                   5.82672
             78.9                3156                   5.81968
               79                3160                   5.81222
             79.1                3164                   5.80468
             79.2                3168                   5.79727
             79.3                3172                   5.78991
             79.4                3176                   5.78201
             79.5                3180                   5.77389
             79.6                3184                   5.76541
             79.7                3188                   5.75687
             79.8                3192                   5.74862
             79.9                3196                      5.74
               80                3200                   5.73175
             80.1                3204                   5.72362
             80.2                3208                   5.71534
             80.3                3212                   5.70679
             80.4                3216                    5.6981
             80.5                3220                   5.68941
             80.6                3224                   5.68066
             80.7                3228                   5.67161
             80.8                3232                   5.66216
             80.9                3236                   5.65283
               81                3240                   5.64278
             81.1                3244                   5.63289
             81.2                3248                   5.62263
             81.3                3252                   5.61182
             81.4                3256                   5.60054
             81.5                3260                   5.58935
             81.6                3264                   5.57855
             81.7                3268                   5.56682
             81.8                3272                   5.55415
             81.9                3276                   5.54187
               82                3280                   5.53003
             82.1                3284                   5.51749
             82.2                3288                   5.50458
             82.3                3292                   5.49125
             82.4                3296                   5.47721
             82.5                3300                    5.4608
             82.6                3304                   5.44133
             82.7                3308                   5.41963
             82.8                3312                    5.3981
             82.9                3316                   5.37771
               83                3320                   5.35805
             83.1                3324                    5.3372
             83.2                3328                   5.31759
             83.3                3332                   5.29803
             83.4                3336                   5.27924
             83.5                3340                   5.26079
             83.6                3344                   5.24203
             83.7                3348                   5.22436
             83.8                3352                   5.20682
             83.9                3356                   5.18881
               84                3360                   5.17216
             84.1                3364                   5.15468
             84.2                3368                   5.13666
             84.3                3372                   5.11846
             84.4                3376                   5.10057
             84.5                3380                   5.08205
             84.6                3384                   5.06439
             84.7                3388                   5.04625
             84.8                3392                   5.02773
             84.9                3396                   5.00871
               85                3400                   4.99035
             85.1                3404                   4.97101
             85.2                3408                   4.95127
             85.3                3412                   4.93125
             85.4                3416                   4.91156
             85.5                3420                   4.89179
             85.6                3424                   4.87264
             85.7                3428                   4.85302
             85.8                3432                   4.83342
             85.9                3436                   4.81416
               86                3440                   4.79334
             86.1                3444                   4.77304
             86.2                3448                   4.75406
             86.3                3452                   4.73387
             86.4                3456                   4.71445
             86.5                3460                   4.69503
             86.6                3464                   4.67529
             86.7                3468                   4.65536
             86.8                3472                   4.63627
             86.9                3476                   4.61719
               87                3480                    4.5974
             87.1                3484                   4.57822
             87.2                3488                   4.55899
             87.3                3492                   4.53953
             87.4                3496                   4.51981
             87.5                3500                    4.5001
             87.6                3504                    4.4801
             87.7                3508                    4.4594
             87.8                3512                   4.43899
             87.9                3516                   4.41886
               88                3520                   4.39725
             88.1                3524                   4.37636
             88.2                3528                   4.35506
             88.3                3532                   4.33451
             88.4                3536                     4.313
             88.5                3540                   4.29218
             88.6                3544                   4.27072
             88.7                3548                   4.24922
             88.8                3552                   4.22676
             88.9                3556                   4.20537
               89                3560                   4.18345
             89.1                3564                   4.16187
             89.2                3568                   4.14052
             89.3                3572                   4.11893
             89.4                3576                   4.09781
             89.5                3580                   4.07573
             89.6                3584                   4.05278
             89.7                3588                    4.0307
             89.8                3592                   4.00826
             89.9                3596                   3.98524
               90                3600                   3.96281
             90.1                3604                   3.94026
             90.2                3608                   3.91789
             90.3                3612                   3.89655
             90.4                3616                    3.8763
             90.5                3620                   3.85668
             90.6                3624                   3.83773
             90.7                3628                    3.8183
             90.8                3632                   3.79933
             90.9                3636                   3.78081
               91                3640                   3.76314
             91.1                3644                   3.74485
             91.2                3648                    3.7267
             91.3                3652                   3.70925
             91.4                3656                   3.69252
             91.5                3660                   3.67565
             91.6                3664                   3.65949
             91.7                3668                   3.64365
             91.8                3672                   3.62821
             91.9                3676                   3.61322
               92                3680                   3.59855
             92.1                3684                   3.58341
             92.2                3688                    3.5685
             92.3                3692                   3.55407
             92.4                3696                    3.5394
             92.5                3700                    3.5244
             92.6                3704                   3.50901
             92.7                3708                   3.49432
             92.8                3712                   3.47943
             92.9                3716                   3.46402
               93                3720                   3.44888
             93.1                3724                    3.4333
             93.2                3728                   3.41829
             93.3                3732                   3.40261
             93.4                3736                    3.3863
             93.5                3740                   3.36981
             93.6                3744                   3.35321
             93.7                3748                   3.33651
             93.8                3752                   3.31985
             93.9                3756                   3.30313
               94                3760                   3.28606
             94.1                3764                   3.26924
             94.2                3768                   3.25185
             94.3                3772                   3.23375
             94.4                3776                   3.21642
             94.5                3780                   3.19884
             94.6                3784                   3.17999
             94.7                3788                    3.1621
             94.8                3792                   3.14398
             94.9                3796                   3.12598
               95                3800                   3.10784
             95.1                3804                   3.08862
             95.2                3808                   3.06859
             95.3                3812                   3.04983
             95.4                3816                   3.03015
             95.5                3820                   3.01105
             95.6                3824                   2.99142
             95.7                3828                   2.97148
             95.8                3832                    2.9522
             95.9                3836                   2.93346
               96                3840                   2.91488
             96.1                3844                   2.89451
             96.2                3848                   2.87416
             96.3                3852                   2.85347
             96.4                3856                   2.83327
             96.5                3860                   2.81221
             96.6                3864                    2.7921
             96.7                3868                   2.77263
             96.8                3872                   2.75156
             96.9                3876                   2.73022
               97                3880                   2.70821
             97.1                3884                   2.68728
             97.2                3888                   2.66602
             97.3                3892                   2.64384
             97.4                3896                   2.62272
             97.5                3900                   2.60099
             97.6                3904                   2.57811
             97.7                3908                   2.55447
             97.8                3912                   2.53182
             97.9                3916                   2.50813
               98                3920                   2.48367
             98.1                3924                   2.45904
             98.2                3928                     2.436
             98.3                3932                   2.41301
             98.4                3936                   2.39017
             98.5                3940                   2.36757
             98.6                3944                   2.34499
             98.7                3948                   2.32234
             98.8                3952                   2.29935
             98.9                3956                   2.27464
               99                3960                   2.24891
             99.1                3964                   2.22292
             99.2                3968                   2.19697
             99.3                3972                   2.17028
             99.4                3976                   2.14575
             99.5                3980                   2.12093
             99.6                3984                   2.09607
             99.7                3988                   2.07109
             99.8                3992                   2.04498
             99.9                3996                   2.01692
              100                4000                   1.98904
            100.1                4004                   1.96162
            100.2                4008                   1.93378
            100.3                4012                   1.90476
            100.4                4016                   1.87537
            100.5                4020                   1.84556
            100.6                4024                   1.81612
            100.7                4028                   1.78466
            100.8                4032                    1.7537
            100.9                4036                   1.71997
              101                4040                    1.6863
            101.1                4044                   1.65053
            101.2                4048                   1.61445
            101.3                4052                   1.57983
            101.4                4056                   1.54539
            101.5                4060                   1.50855
            101.6                4064                   1.47026
            101.7                4068                    1.4343
            101.8                4072                   1.40049
            101.9                4076                   1.36327
              102                4080                   1.32245
            102.1                4084                   1.27971
            102.2                4088                   1.23437
            102.3                4092                   1.19255
            102.4                4096                   1.15129
            102.5                4100                   1.10612
            102.6                4104                   1.06035
            102.7                4108                   1.01356
            102.8                4112                  0.963415
            102.9                4116                  0.908235
              103                4120                  0.858298
            103.1                4124                  0.809547
            103.2                4128                  0.754321
            103.3                4132                  0.691119
            103.4                4136                  0.632075
            103.5                4140                   0.57574
            103.6                4144                  0.521085
            103.7                4148                  0.469956
            103.8                4152                  0.418584
            103.9                4156                  0.368585
              104                4160                  0.321741
            104.1                4164                  0.277136
            104.2                4168                  0.230021
            104.3                4172                  0.188478
            104.4                4176                  0.149653
            104.5                4180                  0.116704
            104.6                4184                 0.0894521
            104.7                4188                 0.0711185
            104.8                4192                 0.0568534
            104.9                4196                 0.0439806
              105                4200                 0.0338783
            105.1                4204                 0.0257135
            105.2                4208                 0.0204184
            105.3                4212                 0.0159898
            105.4                4216                 0.0121636
            105.5                4220                0.00856847
            105.6                4224                0.00617628
            105.7                4228                0.00397863
            105.8                4232                 0.0025842
            105.9                4236                0.00138283
              106                4240               0.000578973
            106.1                4244               0.000121012

